Normal incidence	
Wavelength (nm)	Reflectance
395.37	0.37183
396.68	0.37767
397.99	0.35836
399.3	0.35223
400.61	0.34519
401.92	0.34165
403.24	0.34325
404.55	0.34553
405.86	0.34509
407.17	0.34441
408.48	0.34156
409.79	0.34232
411.1	0.34498
412.41	0.34987
413.72	0.35506
415.02	0.35468
416.33	0.35265
417.64	0.35223
418.95	0.35248
420.26	0.35434
421.57	0.35569
422.87	0.35919
424.18	0.35964
425.49	0.36122
426.79	0.35874
428.1	0.35851
429.41	0.35933
430.71	0.36278
432.02	0.36425
433.32	0.36547
434.63	0.36456
435.93	0.36415
437.24	0.36408
438.54	0.3646
439.85	0.36662
441.15	0.36778
442.46	0.36926
443.76	0.36951
445.06	0.36904
446.37	0.369
447.67	0.36896
448.97	0.36981
450.28	0.3693
451.58	0.36976
452.88	0.36972
454.18	0.37048
455.48	0.37115
456.78	0.37159
458.09	0.37263
459.39	0.37294
460.69	0.3734
461.99	0.37308
463.29	0.37226
464.59	0.37176
465.89	0.37248
467.19	0.3744
468.49	0.37443
469.78	0.3746
471.08	0.37397
472.38	0.37435
473.68	0.3738
474.98	0.37462
476.28	0.3747
477.57	0.37512
478.87	0.37552
480.17	0.37553
481.46	0.37538
482.76	0.37408
484.06	0.37432
485.35	0.37412
486.65	0.37399
487.94	0.37386
489.24	0.37442
490.54	0.37506
491.83	0.37504
493.12	0.37433
494.42	0.37363
495.71	0.37308
497.01	0.37331
498.3	0.37301
499.59	0.37352
500.89	0.37337
502.18	0.37346
503.47	0.3726
504.77	0.37135
506.06	0.37067
507.35	0.37046
508.64	0.37112
509.93	0.37097
511.22	0.37107
512.52	0.37072
513.81	0.37071
515.1	0.37051
516.39	0.37074
517.68	0.37063
518.97	0.37042
520.26	0.36991
521.55	0.36956
522.84	0.36941
524.13	0.36919
525.41	0.3693
526.7	0.36872
527.99	0.36844
529.28	0.36803
530.57	0.36776
531.85	0.36765
533.14	0.36727
534.43	0.36731
535.71	0.36667
537	0.36645
538.29	0.36607
539.57	0.36582
540.86	0.36536
542.15	0.36501
543.43	0.36452
544.72	0.36465
546	0.36425
547.29	0.3642
548.57	0.36354
549.85	0.36318
551.14	0.36279
552.42	0.36256
553.71	0.36198
554.99	0.36147
556.27	0.36104
557.55	0.361
558.84	0.36061
560.12	0.36024
561.4	0.35988
562.68	0.35969
563.96	0.35931
565.25	0.3588
566.53	0.35828
567.81	0.3578
569.09	0.35753
570.37	0.35708
571.65	0.35661
572.93	0.35603
574.21	0.35561
575.49	0.35538
576.77	0.35502
578.05	0.35454
579.33	0.35397
580.6	0.35339
581.88	0.35328
583.16	0.35298
584.44	0.35263
585.72	0.35207
586.99	0.35164
588.27	0.35132
589.55	0.35094
590.82	0.35046
592.1	0.34996
593.38	0.3495
594.65	0.34894
595.93	0.34856
597.2	0.34817
598.48	0.34785
599.75	0.34738
601.03	0.34682
602.3	0.34668
603.58	0.34641
604.85	0.34629
606.12	0.34576
607.4	0.34512
608.67	0.34463
609.94	0.34399
611.22	0.34363
612.49	0.34317
613.76	0.34305
615.03	0.34269
616.3	0.34219
617.58	0.34144
618.85	0.34105
620.12	0.34071
621.39	0.34017
622.66	0.33953
623.93	0.33879
625.2	0.33856
626.47	0.33828
627.74	0.33786
629.01	0.33727
630.28	0.3365
631.55	0.33608
632.82	0.33575
634.09	0.33554
635.35	0.33515
636.62	0.33459
637.89	0.33401
639.16	0.33346
640.42	0.33291
641.69	0.33245
642.96	0.33224
644.22	0.3318
645.49	0.33131
646.76	0.33068
648.02	0.33024
649.29	0.32999
650.55	0.32961
651.82	0.32941
653.08	0.32899
654.35	0.32871
655.61	0.32823
656.88	0.32791
658.14	0.32734
659.41	0.32686
660.67	0.32616
661.93	0.32573
663.2	0.3254
664.46	0.32483
665.72	0.3245
666.98	0.32405
668.25	0.32386
669.51	0.32323
670.77	0.3226
672.03	0.32208
673.29	0.32177
674.55	0.32117
675.81	0.32051
677.07	0.31974
678.33	0.31942
679.59	0.31905
680.85	0.31878
682.11	0.31815
683.37	0.31797
684.63	0.31749
685.89	0.31722
687.15	0.31666
688.41	0.3164
689.66	0.31592
690.92	0.31533
692.18	0.31478
693.44	0.3144
694.69	0.31406
695.95	0.31358
697.21	0.313
698.46	0.31247
699.72	0.31212
700.98	0.31175
702.23	0.31126
703.49	0.31088
704.74	0.31065
706	0.31029
707.25	0.30968
708.51	0.3091
709.76	0.30863
711.01	0.30828
712.27	0.30785
713.52	0.30778
714.78	0.30729
716.03	0.30696
717.28	0.30643
718.53	0.30607
719.79	0.30568
721.04	0.30506
722.29	0.30461
723.54	0.30399
724.79	0.30379
726.04	0.30336
727.29	0.30289
728.55	0.30217
729.8	0.30172
731.05	0.30135
732.3	0.30119
733.55	0.30076
734.8	0.30037
736.04	0.2999
737.29	0.29936
738.54	0.29906
739.79	0.29864
741.04	0.29844
742.29	0.29787
743.53	0.29736
744.78	0.29692
746.03	0.29659
747.28	0.29616
748.52	0.29558
749.77	0.29509
751.02	0.29481
752.26	0.29469
753.51	0.29419
754.75	0.29343
756	0.2928
757.25	0.29267
758.49	0.29252
759.73	0.29195
760.98	0.29162
762.22	0.29108
763.47	0.2908
764.71	0.29025
765.95	0.28996
767.2	0.28946
768.44	0.28908
769.68	0.28858
770.93	0.28839
772.17	0.2876
773.41	0.28721
774.65	0.28652
775.89	0.28632
777.14	0.28612
778.38	0.28599
779.62	0.28563
780.86	0.28508
782.1	0.28444
783.34	0.28405
784.58	0.28338
785.82	0.28294
787.06	0.28253
788.3	0.28258
789.54	0.28225
790.78	0.28188
792.01	0.28118
793.25	0.281
794.49	0.28057
795.73	0.28023
796.97	0.27959
798.2	0.27943
799.44	0.27934
800.68	0.27903
801.91	0.27804
803.15	0.27727
804.39	0.2768
805.62	0.2768
806.86	0.27664
808.09	0.27645
809.33	0.27616
810.56	0.27598
811.8	0.27581
813.03	0.27507
814.27	0.27424
815.5	0.27348
816.74	0.27343
817.97	0.27311
819.2	0.27311
820.44	0.27264
821.67	0.27219
822.9	0.2714
824.13	0.27095
825.36	0.27067
826.6	0.27042
827.83	0.26987
829.06	0.26941
830.29	0.26888
831.52	0.26846
832.75	0.26796
833.98	0.2677
835.21	0.26744
836.44	0.26741
837.67	0.26692
838.9	0.2665
840.13	0.26601
841.36	0.26576
842.59	0.2658
843.82	0.26517
845.05	0.26457
846.27	0.26414
847.5	0.26404
848.73	0.26381
849.96	0.26332
851.18	0.26308
852.41	0.26274
853.64	0.26214
854.86	0.2615
856.09	0.26111
857.32	0.26067
858.54	0.26035
859.77	0.26003
860.99	0.25969
862.22	0.25928
863.44	0.25884
864.67	0.25831
865.89	0.25775
867.12	0.25737
868.34	0.25735
869.56	0.25744
870.79	0.25701
872.01	0.25651
873.23	0.25606
874.45	0.25555
875.68	0.2551
876.9	0.25427
878.12	0.25396
879.34	0.25392
880.56	0.25375
881.79	0.25389
883.01	0.25323
884.23	0.25308
885.45	0.25243
886.67	0.25266
887.89	0.25226
889.11	0.25223
890.33	0.25131
891.55	0.25059
892.77	0.25004
893.98	0.24966
895.2	0.24959
896.42	0.24904
897.64	0.24895
898.86	0.24861
900.07	0.24848
901.29	0.24788
902.51	0.24758
903.73	0.24687
904.94	0.24669
906.16	0.24606
907.38	0.24611
908.59	0.24567
909.81	0.24525
911.02	0.24479
912.24	0.24458
913.45	0.24432
914.67	0.24416
915.88	0.24442
917.1	0.24479
918.31	0.24433
919.52	0.24377
920.74	0.24318
921.95	0.24315
923.16	0.24275
924.38	0.24284
925.59	0.24251
926.8	0.24212
928.01	0.24144
929.23	0.24111
930.44	0.24079
931.65	0.24035
932.86	0.2405
934.07	0.24022
935.28	0.2399
936.49	0.23856
937.7	0.23787
938.91	0.23651
940.12	0.23594
941.33	0.23602
942.54	0.23722
943.75	0.23757
944.96	0.23697
946.17	0.23589
947.38	0.23545
948.58	0.23482
949.79	0.23558
951	0.23414
952.21	0.23438
953.41	0.23415
954.62	0.2347
955.83	0.23387
957.03	0.23276
958.24	0.23324
959.45	0.23373
960.65	0.23478
961.86	0.23426
963.06	0.23396
964.27	0.23226
965.47	0.23254
966.68	0.23276
967.88	0.2329
969.09	0.23172
970.29	0.23101
971.49	0.23035
972.7	0.23185
973.9	0.23178
975.1	0.23201
976.3	0.22945
977.51	0.22797
978.71	0.22615
979.91	0.22587
981.11	0.22589
982.31	0.22596
983.52	0.22623
984.72	0.22669
985.92	0.22627
987.12	0.22697
988.32	0.22637
989.52	0.22622
990.72	0.22462
991.92	0.22217
993.12	0.22217
994.32	0.22126
995.51	0.22276
996.71	0.2232
997.91	0.22333
999.11	0.22348
1000.31	0.22327
1001.51	0.22439
1002.7	0.22337
1003.9	0.22241
1005.1	0.22117
1006.29	0.22045
1007.49	0.22065
1008.69	0.21941
1009.88	0.21849
1011.08	0.21642
1012.27	0.21687
1013.47	0.21845
1014.66	0.21879
1015.86	0.21915
1017.05	0.2182
1018.25	0.21931
1019.44	0.21924
1020.64	0.21797
1021.83	0.21708
1023.02	0.21422
1024.22	0.21484
1025.41	0.21478
1026.6	0.21554
1027.79	0.21133
1028.99	0.21339
1030.18	0.21965
1031.37	0.22733
1032.56	0.22995