Normal incidence	
Wavelength (nm)	Reflectance
395.37	0.47267
396.68	0.47833
397.99	0.47583
399.3	0.47873
400.61	0.48921
401.92	0.49248
403.24	0.50018
404.55	0.50668
405.86	0.51107
407.17	0.50964
408.48	0.50624
409.79	0.50739
411.1	0.5104
412.41	0.5112
413.72	0.5156
415.02	0.52325
416.33	0.53002
417.64	0.52727
418.95	0.52929
420.26	0.53156
421.57	0.53718
422.87	0.53622
424.18	0.53927
425.49	0.54235
426.79	0.54529
428.1	0.54695
429.41	0.5491
430.71	0.55094
432.02	0.55409
433.32	0.55504
434.63	0.5577
435.93	0.55817
437.24	0.56024
438.54	0.56326
439.85	0.56663
441.15	0.56843
442.46	0.56868
443.76	0.56998
445.06	0.57314
446.37	0.57665
447.67	0.57832
448.97	0.57974
450.28	0.58082
451.58	0.58236
452.88	0.58299
454.18	0.58368
455.48	0.5853
456.78	0.58746
458.09	0.58884
459.39	0.58979
460.69	0.58998
461.99	0.59087
463.29	0.59223
464.59	0.59375
465.89	0.59523
467.19	0.59657
468.49	0.59924
469.78	0.60145
471.08	0.60292
472.38	0.60516
473.68	0.60541
474.98	0.60663
476.28	0.60642
477.57	0.60797
478.87	0.60945
480.17	0.61048
481.46	0.61119
482.76	0.61183
484.06	0.61303
485.35	0.61429
486.65	0.61506
487.94	0.61588
489.24	0.61685
490.54	0.61729
491.83	0.61766
493.12	0.61879
494.42	0.62069
495.71	0.62123
497.01	0.62172
498.3	0.62219
499.59	0.62314
500.89	0.62398
502.18	0.62389
503.47	0.62457
504.77	0.62496
506.06	0.62612
507.35	0.62788
508.64	0.62815
509.93	0.62815
511.22	0.62815
512.52	0.62923
513.81	0.62974
515.1	0.6287
516.39	0.62852
517.68	0.62914
518.97	0.63093
520.26	0.63209
521.55	0.6325
522.84	0.63275
524.13	0.63246
525.41	0.63296
526.7	0.63285
527.99	0.63327
529.28	0.63354
530.57	0.63436
531.85	0.63438
533.14	0.63458
534.43	0.63435
535.71	0.63457
537	0.63425
538.29	0.63362
539.57	0.63352
540.86	0.63384
542.15	0.6346
543.43	0.63518
544.72	0.63491
546	0.63444
547.29	0.63429
548.57	0.63431
549.85	0.63476
551.14	0.63466
552.42	0.63495
553.71	0.63518
554.99	0.63562
556.27	0.63586
557.55	0.63575
558.84	0.6352
560.12	0.63502
561.4	0.63489
562.68	0.63524
563.96	0.63528
565.25	0.63512
566.53	0.63505
567.81	0.6351
569.09	0.63492
570.37	0.63428
571.65	0.63374
572.93	0.63341
574.21	0.63345
575.49	0.63292
576.77	0.63258
578.05	0.63214
579.33	0.63193
580.6	0.63176
581.88	0.63145
583.16	0.63105
584.44	0.63045
585.72	0.63
586.99	0.62953
588.27	0.62916
589.55	0.62868
590.82	0.6286
592.1	0.62818
593.38	0.62759
594.65	0.62658
595.93	0.62589
597.2	0.62565
598.48	0.62512
599.75	0.62507
601.03	0.62428
602.3	0.62376
603.58	0.62283
604.85	0.62214
606.12	0.62154
607.4	0.6208
608.67	0.62005
609.94	0.61953
611.22	0.61869
612.49	0.61842
613.76	0.61723
615.03	0.61642
616.3	0.61523
617.58	0.61493
618.85	0.6139
620.12	0.61329
621.39	0.61224
622.66	0.6119
623.93	0.61089
625.2	0.61002
626.47	0.6092
627.74	0.60863
629.01	0.60816
630.28	0.60742
631.55	0.606
632.82	0.60501
634.09	0.60376
635.35	0.60315
636.62	0.60205
637.89	0.60141
639.16	0.60069
640.42	0.59953
641.69	0.59811
642.96	0.59701
644.22	0.59658
645.49	0.5959
646.76	0.59442
648.02	0.59286
649.29	0.59152
650.55	0.59076
651.82	0.58946
653.08	0.58877
654.35	0.58786
655.61	0.58706
656.88	0.58572
658.14	0.5846
659.41	0.58361
660.67	0.58268
661.93	0.58148
663.2	0.58035
664.46	0.57913
665.72	0.57815
666.98	0.57703
668.25	0.5763
669.51	0.57514
670.77	0.57389
672.03	0.57294
673.29	0.572
674.55	0.57109
675.81	0.56957
677.07	0.56813
678.33	0.56681
679.59	0.56581
680.85	0.56508
682.11	0.56414
683.37	0.56305
684.63	0.56183
685.89	0.56084
687.15	0.55925
688.41	0.55781
689.66	0.55646
690.92	0.55569
692.18	0.55463
693.44	0.55335
694.69	0.55164
695.95	0.5507
697.21	0.54962
698.46	0.54895
699.72	0.54752
700.98	0.54632
702.23	0.54522
703.49	0.54412
704.74	0.5432
706	0.54188
707.25	0.54075
708.51	0.53962
709.76	0.5387
711.01	0.53788
712.27	0.53641
713.52	0.53503
714.78	0.5336
716.03	0.53263
717.28	0.5318
718.53	0.53043
719.79	0.52909
721.04	0.52752
722.29	0.52642
723.54	0.52534
724.79	0.52405
726.04	0.52316
727.29	0.52214
728.55	0.52117
729.8	0.51949
731.05	0.51818
732.3	0.51697
733.55	0.5161
734.8	0.51496
736.04	0.51402
737.29	0.51327
738.54	0.51226
739.79	0.51082
741.04	0.50945
742.29	0.50835
743.53	0.50749
744.78	0.50641
746.03	0.50532
747.28	0.50414
748.52	0.50302
749.77	0.50203
751.02	0.50103
752.26	0.49997
753.51	0.49891
754.75	0.49786
756	0.49698
757.25	0.49585
758.49	0.49469
759.73	0.49331
760.98	0.49189
762.22	0.49114
763.47	0.49047
764.71	0.49011
765.95	0.48915
767.2	0.48786
768.44	0.48641
769.68	0.48509
770.93	0.48423
772.17	0.48336
773.41	0.48249
774.65	0.48136
775.89	0.48067
777.14	0.4801
778.38	0.47943
779.62	0.47858
780.86	0.47742
782.1	0.4764
783.34	0.47491
784.58	0.47392
785.82	0.47281
787.06	0.47188
788.3	0.47052
789.54	0.46955
790.78	0.46878
792.01	0.46805
793.25	0.46718
794.49	0.46623
795.73	0.4649
796.97	0.46385
798.2	0.46327
799.44	0.46303
800.68	0.46226
801.91	0.46063
803.15	0.45947
804.39	0.45852
805.62	0.45752
806.86	0.45652
808.09	0.45539
809.33	0.4547
810.56	0.45376
811.8	0.45335
813.03	0.45273
814.27	0.45154
815.5	0.45056
816.74	0.4497
817.97	0.44904
819.2	0.44786
820.44	0.44657
821.67	0.44577
822.9	0.44481
824.13	0.44402
825.36	0.44285
826.6	0.44198
827.83	0.44126
829.06	0.44019
830.29	0.43905
831.52	0.438
832.75	0.43746
833.98	0.43718
835.21	0.43655
836.44	0.43567
837.67	0.4345
838.9	0.43337
840.13	0.43283
841.36	0.43207
842.59	0.43148
843.82	0.43045
845.05	0.4296
846.27	0.42852
847.5	0.42735
848.73	0.42603
849.96	0.42563
851.18	0.42534
852.41	0.42469
853.64	0.42321
854.86	0.42164
856.09	0.42072
857.32	0.41999
858.54	0.41947
859.77	0.41881
860.99	0.4181
862.22	0.41755
863.44	0.41704
864.67	0.41598
865.89	0.415
867.12	0.41411
868.34	0.41415
869.56	0.41357
870.79	0.41262
872.01	0.4113
873.23	0.41053
874.45	0.40942
875.68	0.40824
876.9	0.40709
878.12	0.4068
879.34	0.40647
880.56	0.40587
881.79	0.40472
883.01	0.40381
884.23	0.40341
885.45	0.40246
886.67	0.40204
887.89	0.40112
889.11	0.401
890.33	0.39993
891.55	0.3991
892.77	0.39869
893.98	0.39826
895.2	0.39734
896.42	0.39612
897.64	0.39544
898.86	0.39496
900.07	0.39422
901.29	0.39293
902.51	0.39158
903.73	0.39071
904.94	0.39019
906.16	0.38959
907.38	0.38867
908.59	0.38767
909.81	0.38715
911.02	0.3862
912.24	0.38561
913.45	0.38484
914.67	0.38396
915.88	0.38315
917.1	0.38174
918.31	0.38162
919.52	0.38093
920.74	0.38098
921.95	0.38014
923.16	0.37948
924.38	0.37829
925.59	0.37726
926.8	0.37636
928.01	0.37595
929.23	0.37516
930.44	0.37476
931.65	0.37433
932.86	0.37359
934.07	0.3728
935.28	0.3708
936.49	0.37076
937.7	0.36964
938.91	0.37051
940.12	0.37021
941.33	0.36917
942.54	0.36823
943.75	0.36761
944.96	0.36805
946.17	0.36727
947.38	0.36563
948.58	0.36449
949.79	0.36302
951	0.36169
952.21	0.36035
953.41	0.36003
954.62	0.35993
955.83	0.35995
957.03	0.35945
958.24	0.35877
959.45	0.35818
960.65	0.35667
961.86	0.35588
963.06	0.35455
964.27	0.35519
965.47	0.3552
966.68	0.35493
967.88	0.35393
969.09	0.35297
970.29	0.35106
971.49	0.34936
972.7	0.34732
973.9	0.34767
975.1	0.34768
976.3	0.34663
977.51	0.34597
978.71	0.34547
979.91	0.34683
981.11	0.3456
982.31	0.34316
983.52	0.34072
984.72	0.33994
985.92	0.34026
987.12	0.33932
988.32	0.33857
989.52	0.33856
990.72	0.33831
991.92	0.33777
993.12	0.33704
994.32	0.33743
995.51	0.33848
996.71	0.33661
997.91	0.33452
999.11	0.33303
1000.31	0.33211
1001.51	0.33213
1002.7	0.33155
1003.9	0.33075
1005.1	0.33126
1006.29	0.33021
1007.49	0.32955
1008.69	0.32695
1009.88	0.32372
1011.08	0.32231
1012.27	0.32066
1013.47	0.31731
1014.66	0.31786
1015.86	0.31565
1017.05	0.3181
1018.25	0.31554
1019.44	0.31693
1020.64	0.31692
1021.83	0.31602
1023.02	0.31251
1024.22	0.30687
1025.41	0.30492
1026.6	0.30577
1027.79	0.30712
1028.99	0.30443
1030.18	0.30133
1031.37	0.30329
1032.56	0.30506