Normal incidence	
Wavelength (nm)	Reflectance
395.37	0.59974
396.68	0.60817
397.99	0.61138
399.3	0.61415
400.61	0.61009
401.92	0.61503
403.24	0.6109
404.55	0.61455
405.86	0.61358
407.17	0.61702
408.48	0.61483
409.79	0.61341
411.1	0.61037
412.41	0.61487
413.72	0.62112
415.02	0.62828
416.33	0.6266
417.64	0.62442
418.95	0.62405
420.26	0.62668
421.57	0.62994
422.87	0.62982
424.18	0.63117
425.49	0.63101
426.79	0.63308
428.1	0.63419
429.41	0.63812
430.71	0.64088
432.02	0.64384
433.32	0.64254
434.63	0.64349
435.93	0.64361
437.24	0.64584
438.54	0.64542
439.85	0.64676
441.15	0.64853
442.46	0.65191
443.76	0.6533
445.06	0.65539
446.37	0.65377
447.67	0.65455
448.97	0.65442
450.28	0.6563
451.58	0.6586
452.88	0.6598
454.18	0.66268
455.48	0.66239
456.78	0.66213
458.09	0.66262
459.39	0.66366
460.69	0.66551
461.99	0.66512
463.29	0.66586
464.59	0.66697
465.89	0.66807
467.19	0.66908
468.49	0.66916
469.78	0.67002
471.08	0.67004
472.38	0.66996
473.68	0.67072
474.98	0.67104
476.28	0.67248
477.57	0.67314
478.87	0.6749
480.17	0.67626
481.46	0.67699
482.76	0.67823
484.06	0.67781
485.35	0.67852
486.65	0.67873
487.94	0.67974
489.24	0.68032
490.54	0.67962
491.83	0.68038
493.12	0.68092
494.42	0.68174
495.71	0.68139
497.01	0.6811
498.3	0.68056
499.59	0.68099
500.89	0.68194
502.18	0.68356
503.47	0.68411
504.77	0.68392
506.06	0.68295
507.35	0.68271
508.64	0.68202
509.93	0.68249
511.22	0.68203
512.52	0.6828
513.81	0.68276
515.1	0.68295
516.39	0.68233
517.68	0.68191
518.97	0.68139
520.26	0.68161
521.55	0.68164
522.84	0.68217
524.13	0.68143
525.41	0.68133
526.7	0.68104
527.99	0.68125
529.28	0.68124
530.57	0.68116
531.85	0.68086
533.14	0.68031
534.43	0.68035
535.71	0.68052
537	0.68084
538.29	0.68018
539.57	0.67921
540.86	0.67853
542.15	0.67818
543.43	0.67823
544.72	0.6778
546	0.6777
547.29	0.67768
548.57	0.67781
549.85	0.6778
551.14	0.67723
552.42	0.67681
553.71	0.67626
554.99	0.67574
556.27	0.67511
557.55	0.67458
558.84	0.67417
560.12	0.67384
561.4	0.67326
562.68	0.67299
563.96	0.67249
565.25	0.67183
566.53	0.67119
567.81	0.67042
569.09	0.67027
570.37	0.67014
571.65	0.67017
572.93	0.66949
574.21	0.66866
575.49	0.66761
576.77	0.66692
578.05	0.66633
579.33	0.66563
580.6	0.66507
581.88	0.66433
583.16	0.66375
584.44	0.663
585.72	0.66216
586.99	0.66169
588.27	0.66104
589.55	0.66046
590.82	0.65972
592.1	0.65883
593.38	0.65805
594.65	0.6573
595.93	0.6567
597.2	0.65593
598.48	0.65469
599.75	0.65393
601.03	0.65294
602.3	0.65201
603.58	0.65089
604.85	0.64982
606.12	0.64933
607.4	0.64791
608.67	0.64702
609.94	0.6455
611.22	0.64486
612.49	0.64382
613.76	0.64312
615.03	0.64259
616.3	0.64163
617.58	0.64097
618.85	0.63974
620.12	0.63894
621.39	0.63777
622.66	0.63672
623.93	0.63561
625.2	0.63415
626.47	0.63288
627.74	0.63161
629.01	0.63053
630.28	0.62947
631.55	0.62855
632.82	0.62791
634.09	0.62689
635.35	0.62579
636.62	0.62435
637.89	0.62321
639.16	0.62204
640.42	0.62077
641.69	0.6194
642.96	0.61808
644.22	0.61685
645.49	0.61587
646.76	0.61496
648.02	0.61384
649.29	0.6124
650.55	0.61111
651.82	0.61031
653.08	0.60924
654.35	0.60806
655.61	0.60659
656.88	0.60577
658.14	0.60468
659.41	0.60413
660.67	0.60287
661.93	0.60161
663.2	0.5999
664.46	0.59857
665.72	0.59745
666.98	0.5962
668.25	0.59491
669.51	0.59339
670.77	0.59204
672.03	0.59109
673.29	0.59041
674.55	0.58948
675.81	0.58808
677.07	0.58645
678.33	0.58487
679.59	0.58386
680.85	0.58271
682.11	0.58163
683.37	0.5802
684.63	0.57904
685.89	0.57771
687.15	0.57661
688.41	0.57527
689.66	0.57471
690.92	0.57372
692.18	0.57299
693.44	0.57159
694.69	0.57018
695.95	0.5686
697.21	0.56724
698.46	0.56608
699.72	0.56463
700.98	0.56333
702.23	0.56201
703.49	0.56099
704.74	0.55998
706	0.55875
707.25	0.55773
708.51	0.55638
709.76	0.55488
711.01	0.55327
712.27	0.55179
713.52	0.55054
714.78	0.54968
716.03	0.54882
717.28	0.548
718.53	0.5469
719.79	0.54593
721.04	0.54495
722.29	0.54387
723.54	0.54248
724.79	0.54142
726.04	0.53996
727.29	0.53864
728.55	0.53727
729.8	0.53618
731.05	0.53567
732.3	0.53455
733.55	0.53345
734.8	0.53202
736.04	0.53096
737.29	0.52973
738.54	0.52878
739.79	0.52797
741.04	0.52747
742.29	0.52602
743.53	0.52457
744.78	0.523
746.03	0.52172
747.28	0.52023
748.52	0.51911
749.77	0.51809
751.02	0.51713
752.26	0.51588
753.51	0.51504
754.75	0.51409
756	0.51311
757.25	0.51183
758.49	0.51085
759.73	0.5101
760.98	0.50937
762.22	0.50831
763.47	0.50715
764.71	0.50598
765.95	0.50477
767.2	0.50384
768.44	0.50276
769.68	0.50222
770.93	0.50138
772.17	0.50043
773.41	0.49953
774.65	0.49831
775.89	0.49747
777.14	0.4964
778.38	0.49552
779.62	0.49434
780.86	0.49304
782.1	0.49204
783.34	0.49136
784.58	0.49049
785.82	0.48956
787.06	0.48837
788.3	0.48722
789.54	0.48584
790.78	0.48486
792.01	0.48403
793.25	0.48365
794.49	0.48277
795.73	0.48182
796.97	0.48094
798.2	0.48007
799.44	0.47935
800.68	0.47806
801.91	0.47728
803.15	0.47647
804.39	0.47553
805.62	0.47409
806.86	0.47285
808.09	0.47212
809.33	0.47177
810.56	0.47118
811.8	0.46985
813.03	0.46872
814.27	0.46761
815.5	0.46723
816.74	0.46631
817.97	0.46556
819.2	0.46464
820.44	0.46341
821.67	0.46247
822.9	0.46111
824.13	0.46066
825.36	0.45995
826.6	0.45958
827.83	0.45846
829.06	0.45695
830.29	0.45587
831.52	0.45492
832.75	0.45457
833.98	0.45339
835.21	0.45301
836.44	0.45232
837.67	0.45206
838.9	0.45098
840.13	0.4499
841.36	0.44891
842.59	0.44847
843.82	0.44746
845.05	0.4464
846.27	0.44511
847.5	0.4441
848.73	0.44309
849.96	0.44253
851.18	0.44188
852.41	0.44164
853.64	0.44091
854.86	0.44036
856.09	0.43923
857.32	0.43803
858.54	0.43699
859.77	0.43584
860.99	0.43508
862.22	0.43402
863.44	0.43327
864.67	0.43224
865.89	0.43146
867.12	0.43076
868.34	0.43
869.56	0.42973
870.79	0.4288
872.01	0.42787
873.23	0.42693
874.45	0.42615
875.68	0.4256
876.9	0.42485
878.12	0.42438
879.34	0.42344
880.56	0.42235
881.79	0.42136
883.01	0.42127
884.23	0.42048
885.45	0.41973
886.67	0.41827
887.89	0.41699
889.11	0.41584
890.33	0.41501
891.55	0.41465
892.77	0.41441
893.98	0.41406
895.2	0.4136
896.42	0.41296
897.64	0.41216
898.86	0.41163
900.07	0.41094
901.29	0.41025
902.51	0.40986
903.73	0.40942
904.94	0.40863
906.16	0.40727
907.38	0.40583
908.59	0.40509
909.81	0.40444
911.02	0.40365
912.24	0.40261
913.45	0.40142
914.67	0.40043
915.88	0.39967
917.1	0.39925
918.31	0.39966
919.52	0.39924
920.74	0.39902
921.95	0.39768
923.16	0.39701
924.38	0.39578
925.59	0.39497
926.8	0.39376
928.01	0.39259
929.23	0.39226
930.44	0.3916
931.65	0.39186
932.86	0.39122
934.07	0.39099
935.28	0.38984
936.49	0.38857
937.7	0.38761
938.91	0.38695
940.12	0.38639
941.33	0.38618
942.54	0.38462
943.75	0.38248
944.96	0.38145
946.17	0.38196
947.38	0.38229
948.58	0.38137
949.79	0.38012
951	0.37971
952.21	0.37902
953.41	0.3782
954.62	0.37841
955.83	0.37935
957.03	0.37906
958.24	0.37704
959.45	0.37529
960.65	0.37478
961.86	0.37599
963.06	0.37514
964.27	0.37438
965.47	0.37281
966.68	0.37277
967.88	0.37129
969.09	0.36879
970.29	0.36744
971.49	0.36716
972.7	0.36821
973.9	0.36774
975.1	0.36709
976.3	0.36486
977.51	0.3625
978.71	0.36115
979.91	0.36099
981.11	0.36037
982.31	0.36027
983.52	0.35957
984.72	0.35958
985.92	0.35989
987.12	0.36031
988.32	0.35963
989.52	0.35911
990.72	0.35727
991.92	0.35818
993.12	0.35626
994.32	0.35689
995.51	0.35507
996.71	0.35598
997.91	0.35674
999.11	0.35592
1000.31	0.35535
1001.51	0.35416
1002.7	0.35494
1003.9	0.35257
1005.1	0.34863
1006.29	0.34858
1007.49	0.3479
1008.69	0.34953
1009.88	0.34416
1011.08	0.3432
1012.27	0.34114
1013.47	0.34291
1014.66	0.34244
1015.86	0.34392
1017.05	0.34277
1018.25	0.34114
1019.44	0.33729
1020.64	0.33461
1021.83	0.33317
1023.02	0.33204
1024.22	0.33097
1025.41	0.32812
1026.6	0.32491
1027.79	0.32614
1028.99	0.32566
1030.18	0.33098
1031.37	0.32949
1032.56	0.33248